Center
Title
Electric field data from file C1QC.AM
SubTitle
Problem title line 1: Electrostatic problem with space charge - one quadrant

MArkersize -0.3
Abscissa 1
Ordinate 3 4 5 6


Titles
X
Y
Ex
Ey
|E|
V 
EndTitles

AxisLabels
X (cm)
Y (cm)
Ex (V/cm)
Ey (V/cm)
E (V/cm)
V  (V)
EndLabels

CurveLabels
X
Y
Ex
Ey
E
V 
EndLabels

Data
;     X             Y              Ex            Ey            |E|           V 
;   (cm)          (cm)           (V/cm)        (V/cm)        (V/cm)         (V)  
   1.00000      0.666667      3.908576E+03  2.601741E+03  4.695319E+03  6.790112E+03
   1.01980      0.679868      3.832436E+03  2.551458E+03  4.604075E+03  6.679434E+03
   1.03960      0.693070      3.759411E+03  2.502839E+03  4.516345E+03  6.570795E+03
   1.05941      0.706271      3.689629E+03  2.456581E+03  4.432624E+03  6.464229E+03
   1.07921      0.719472      3.621647E+03  2.411315E+03  4.350950E+03  6.359692E+03
   1.09901      0.732674      3.556235E+03  2.367976E+03  4.272484E+03  6.256986E+03
   1.11881      0.745875      3.493590E+03  2.326359E+03  4.197275E+03  6.156176E+03
   1.13861      0.759076      3.432847E+03  2.285840E+03  4.124258E+03  6.057089E+03
   1.15842      0.772278      3.373929E+03  2.247355E+03  4.053887E+03  5.959754E+03
   1.17822      0.785479      3.317435E+03  2.209255E+03  3.985747E+03  5.864016E+03
   1.19802      0.798680      3.262772E+03  2.172835E+03  3.920063E+03  5.769884E+03
   1.21782      0.811881      3.209484E+03  2.137748E+03  3.856262E+03  5.677336E+03
   1.23762      0.825083      3.158229E+03  2.103413E+03  3.794569E+03  5.586231E+03
   1.25743      0.838284      3.108782E+03  2.070526E+03  3.735184E+03  5.496584E+03
   1.27723      0.851485      3.060332E+03  2.038425E+03  3.677065E+03  5.408372E+03
   1.29703      0.864687      3.013613E+03  2.007288E+03  3.620921E+03  5.321474E+03
   1.31683      0.877888      2.968414E+03  1.977332E+03  3.566696E+03  5.235933E+03
   1.33663      0.891089      2.924427E+03  1.947980E+03  3.513815E+03  5.151639E+03
   1.35644      0.904291      2.881660E+03  1.919615E+03  3.462497E+03  5.068577E+03
   1.37624      0.917492      2.840268E+03  1.892038E+03  3.412760E+03  4.986755E+03
   1.39604      0.930693      2.800086E+03  1.865257E+03  3.364471E+03  4.906073E+03
   1.41584      0.943895      2.760694E+03  1.839340E+03  3.317318E+03  4.826552E+03
   1.43564      0.957096      2.722760E+03  1.813839E+03  3.271610E+03  4.748109E+03
   1.45545      0.970297      2.685909E+03  1.789300E+03  3.227337E+03  4.670745E+03
   1.47525      0.983499      2.649641E+03  1.765319E+03  3.183858E+03  4.594447E+03
   1.49505      0.996700      2.614605E+03  1.741882E+03  3.141705E+03  4.519140E+03
   1.51485       1.00990      2.580442E+03  1.719303E+03  3.100755E+03  4.444851E+03
   1.53465       1.02310      2.547166E+03  1.697070E+03  3.060735E+03  4.371506E+03
   1.55446       1.03630      2.514723E+03  1.675453E+03  3.021750E+03  4.299097E+03
   1.57426       1.04951      2.483073E+03  1.654427E+03  2.983753E+03  4.227629E+03
   1.59406       1.06271      2.452319E+03  1.633924E+03  2.946790E+03  4.157034E+03
   1.61386       1.07591      2.422205E+03  1.613942E+03  2.910650E+03  4.087308E+03
   1.63366       1.08911      2.392805E+03  1.594308E+03  2.875297E+03  4.018453E+03
   1.65347       1.10231      2.364096E+03  1.575251E+03  2.840839E+03  3.950408E+03
   1.67327       1.11551      2.336223E+03  1.556671E+03  2.807341E+03  3.883190E+03
   1.69307       1.12871      2.308881E+03  1.538435E+03  2.774475E+03  3.816750E+03
   1.71287       1.14191      2.282137E+03  1.520793E+03  2.742437E+03  3.751096E+03
   1.73267       1.15512      2.256106E+03  1.503330E+03  2.711091E+03  3.686180E+03
   1.75248       1.16832      2.230655E+03  1.486371E+03  2.680507E+03  3.622004E+03
   1.77228       1.18152      2.205670E+03  1.469805E+03  2.650530E+03  3.558564E+03
   1.79208       1.19472      2.181316E+03  1.453538E+03  2.621243E+03  3.495811E+03
   1.81188       1.20792      2.157573E+03  1.437740E+03  2.592724E+03  3.433753E+03
   1.83168       1.22112      2.134169E+03  1.422160E+03  2.564608E+03  3.372380E+03
   1.85149       1.23432      2.111330E+03  1.406960E+03  2.537174E+03  3.311652E+03
   1.87129       1.24752      2.089027E+03  1.392111E+03  2.510380E+03  3.251585E+03
   1.89109       1.26073      2.067161E+03  1.377530E+03  2.484098E+03  3.192139E+03
   1.91089       1.27393      2.045697E+03  1.363301E+03  2.458347E+03  3.133310E+03
   1.93069       1.28713      2.024744E+03  1.349291E+03  2.433141E+03  3.075100E+03
   1.95050       1.30033      2.004243E+03  1.335631E+03  2.408506E+03  3.017474E+03
   1.97030       1.31353      1.984022E+03  1.322229E+03  2.384247E+03  2.960439E+03
   1.99010       1.32673      1.964312E+03  1.309045E+03  2.360533E+03  2.903964E+03
   2.00990       1.33993      1.944971E+03  1.296234E+03  2.337335E+03  2.848058E+03
   2.02970       1.35314      1.925992E+03  1.283554E+03  2.314510E+03  2.792692E+03
   2.04950       1.36634      1.907389E+03  1.271148E+03  2.292150E+03  2.737862E+03
   2.06931       1.37954      1.889131E+03  1.259008E+03  2.270224E+03  2.683570E+03
   2.08911       1.39274      1.871222E+03  1.247072E+03  2.248702E+03  2.629784E+03
   2.10891       1.40594      1.853681E+03  1.235405E+03  2.227635E+03  2.576508E+03
   2.12871       1.41914      1.836420E+03  1.223882E+03  2.206881E+03  2.523737E+03
   2.14851       1.43234      1.819473E+03  1.212617E+03  2.186532E+03  2.471445E+03
   2.16832       1.44554      1.802902E+03  1.201565E+03  2.166613E+03  2.419642E+03
   2.18812       1.45875      1.786577E+03  1.190680E+03  2.146993E+03  2.368303E+03
   2.20792       1.47195      1.770527E+03  1.180054E+03  2.127744E+03  2.317434E+03
   2.22772       1.48515      1.754814E+03  1.169531E+03  2.108833E+03  2.267010E+03
   2.24752       1.49835      1.739377E+03  1.159246E+03  2.090283E+03  2.217034E+03
   2.26733       1.51155      1.724154E+03  1.149129E+03  2.072005E+03  2.167503E+03
   2.28713       1.52475      1.709233E+03  1.139171E+03  2.054066E+03  2.118395E+03
   2.30693       1.53795      1.694586E+03  1.129433E+03  2.036478E+03  2.069718E+03
   2.32673       1.55116      1.680151E+03  1.119802E+03  2.019125E+03  2.021451E+03
   2.34653       1.56436      1.665963E+03  1.110362E+03  2.002083E+03  1.973591E+03
   2.36634       1.57756      1.652034E+03  1.101074E+03  1.985342E+03  1.926141E+03
   2.38614       1.59076      1.638342E+03  1.091947E+03  1.968886E+03  1.879081E+03
   2.40594       1.60396      1.624834E+03  1.082994E+03  1.952680E+03  1.832409E+03
   2.42574       1.61716      1.611578E+03  1.074117E+03  1.936727E+03  1.786124E+03
   2.44554       1.63036      1.598535E+03  1.065478E+03  1.921082E+03  1.740217E+03
   2.46535       1.64356      1.585689E+03  1.056890E+03  1.905630E+03  1.694674E+03
   2.48515       1.65677      1.573061E+03  1.048462E+03  1.890448E+03  1.649496E+03
   2.50495       1.66997      1.560622E+03  1.040192E+03  1.875510E+03  1.604681E+03
   2.52475       1.68317      1.548384E+03  1.032028E+03  1.860799E+03  1.560214E+03
   2.54455       1.69637      1.536350E+03  1.024017E+03  1.846342E+03  1.516095E+03
   2.56436       1.70957      1.524474E+03  1.016096E+03  1.832068E+03  1.472322E+03
   2.58416       1.72277      1.512784E+03  1.008316E+03  1.818025E+03  1.428881E+03
   2.60396       1.73597      1.501301E+03  1.000660E+03  1.804224E+03  1.385777E+03
   2.62376       1.74917      1.489968E+03  9.931031E+02  1.790603E+03  1.342995E+03
   2.64356       1.76238      1.478788E+03  9.856885E+02  1.777188E+03  1.300538E+03
   2.66337       1.77558      1.467809E+03  9.783428E+02  1.763978E+03  1.258394E+03
   2.68317       1.78878      1.456996E+03  9.711379E+02  1.750984E+03  1.216563E+03
   2.70297       1.80198      1.446301E+03  9.640224E+02  1.738138E+03  1.175043E+03
   2.72277       1.81518      1.435785E+03  9.570085E+02  1.725498E+03  1.133822E+03
   2.74257       1.82838      1.425427E+03  9.501147E+02  1.713055E+03  1.092904E+03
   2.76238       1.84158      1.415211E+03  9.433010E+02  1.700776E+03  1.052276E+03
   2.78218       1.85479      1.405131E+03  9.365972E+02  1.688670E+03  1.011939E+03
   2.80198       1.86799      1.395204E+03  9.299694E+02  1.676734E+03  9.718909E+02
   2.82178       1.88119      1.385434E+03  9.234581E+02  1.664994E+03  9.321219E+02
   2.84158       1.89439      1.375772E+03  9.170248E+02  1.653385E+03  8.926332E+02
   2.86139       1.90759      1.366243E+03  9.106711E+02  1.641932E+03  8.534166E+02
   2.88119       1.92079      1.356849E+03  9.044293E+02  1.630654E+03  8.144735E+02
   2.90099       1.93399      1.347592E+03  8.982478E+02  1.619523E+03  7.757934E+02
   2.92079       1.94719      1.338465E+03  8.921681E+02  1.608556E+03  7.373771E+02
   2.94059       1.96040      1.329444E+03  8.861549E+02  1.597714E+03  6.992232E+02
   2.96040       1.97360      1.320548E+03  8.802297E+02  1.587026E+03  6.613220E+02
   2.98020       1.98680      1.311785E+03  8.743882E+02  1.576495E+03  6.236767E+02
   3.00000       2.00000      1.303127E+03  8.686148E+02  1.566088E+03  5.862780E+02
EndData
EndFile
