Center
Title
Electric field data from file C4Q.AM
SubTitle
Problem title line 1: Electrostatic problem with space charge - 4 quadrants

MArkersize -0.3
Abscissa 1
Ordinate 3 4 5 6


Titles
X
Y
Ex
Ey
|E|
V 
EndTitles

AxisLabels
X (cm)
Y (cm)
Ex (V/cm)
Ey (V/cm)
E (V/cm)
V  (V)
EndLabels

CurveLabels
X
Y
Ex
Ey
E
V 
EndLabels

Data
;     X             Y              Ex            Ey            |E|           V 
;   (cm)          (cm)           (V/cm)        (V/cm)        (V/cm)         (V)  
   1.00000      0.666667      3.905085E+03  2.599569E+03  4.691210E+03  6.784283E+03
   1.01980      0.679868      3.829199E+03  2.549136E+03  4.600094E+03  6.673609E+03
   1.03960      0.693070      3.756356E+03  2.500909E+03  4.512733E+03  6.565150E+03
   1.05941      0.706271      3.686370E+03  2.454252E+03  4.428620E+03  6.458671E+03
   1.07921      0.719472      3.618543E+03  2.409440E+03  4.347328E+03  6.354153E+03
   1.09901      0.732674      3.553379E+03  2.365980E+03  4.269001E+03  6.251604E+03
   1.11881      0.745875      3.490872E+03  2.324359E+03  4.193904E+03  6.150833E+03
   1.13861      0.759076      3.429671E+03  2.284156E+03  4.120680E+03  6.051875E+03
   1.15842      0.772278      3.371249E+03  2.244928E+03  4.050311E+03  5.954570E+03
   1.17822      0.785479      3.314621E+03  2.207777E+03  3.982586E+03  5.858968E+03
   1.19802      0.798680      3.259831E+03  2.171093E+03  3.916649E+03  5.764916E+03
   1.21782      0.811881      3.206897E+03  2.135718E+03  3.852983E+03  5.672397E+03
   1.23762      0.825083      3.155535E+03  2.101814E+03  3.791441E+03  5.581422E+03
   1.25743      0.838284      3.105857E+03  2.068652E+03  3.731711E+03  5.491840E+03
   1.27723      0.851485      3.057843E+03  2.036697E+03  3.674036E+03  5.403669E+03
   1.29703      0.864687      3.011063E+03  2.005633E+03  3.617881E+03  5.316890E+03
   1.31683      0.877888      2.965750E+03  1.975493E+03  3.563460E+03  5.231383E+03
   1.33663      0.891089      2.922054E+03  1.946504E+03  3.511022E+03  5.147163E+03
   1.35644      0.904291      2.879259E+03  1.917922E+03  3.459560E+03  5.064208E+03
   1.37624      0.917492      2.837724E+03  1.890400E+03  3.409734E+03  4.982422E+03
   1.39604      0.930693      2.797622E+03  1.863671E+03  3.361541E+03  4.901835E+03
   1.41584      0.943895      2.758523E+03  1.837601E+03  3.314548E+03  4.822360E+03
   1.43564      0.957096      2.720359E+03  1.812462E+03  3.268848E+03  4.744012E+03
   1.45545      0.970297      2.683429E+03  1.787686E+03  3.224378E+03  4.666708E+03
   1.47525      0.983499      2.647522E+03  1.763771E+03  3.181236E+03  4.590455E+03
   1.49505      0.996700      2.612329E+03  1.740464E+03  3.139025E+03  4.515241E+03
   1.51485       1.00990      2.578207E+03  1.717677E+03  3.097994E+03  4.440989E+03
   1.53465       1.02310      2.545037E+03  1.695685E+03  3.058195E+03  4.367726E+03
   1.55446       1.03630      2.512555E+03  1.674013E+03  3.019148E+03  4.295385E+03
   1.57426       1.04951      2.480929E+03  1.652975E+03  2.981163E+03  4.223954E+03
   1.59406       1.06271      2.450160E+03  1.632503E+03  2.944206E+03  4.153440E+03
   1.61386       1.07591      2.420126E+03  1.612478E+03  2.908108E+03  4.083777E+03
   1.63366       1.08911      2.390726E+03  1.593005E+03  2.872845E+03  4.014961E+03
   1.65347       1.10231      2.362130E+03  1.573887E+03  2.838446E+03  3.946994E+03
   1.67327       1.11551      2.334266E+03  1.555324E+03  2.804965E+03  3.879820E+03
   1.69307       1.12871      2.306837E+03  1.537176E+03  2.772076E+03  3.813451E+03
   1.71287       1.14191      2.280220E+03  1.519358E+03  2.740046E+03  3.747836E+03
   1.73267       1.15512      2.254183E+03  1.502140E+03  2.708832E+03  3.682993E+03
   1.75248       1.16832      2.228698E+03  1.485109E+03  2.678179E+03  3.618873E+03
   1.77228       1.18152      2.203807E+03  1.468504E+03  2.648258E+03  3.555470E+03
   1.79208       1.19472      2.179452E+03  1.452331E+03  2.619022E+03  3.492788E+03
   1.81188       1.20792      2.155673E+03  1.436472E+03  2.590440E+03  3.430782E+03
   1.83168       1.22112      2.132358E+03  1.420970E+03  2.562441E+03  3.369448E+03
   1.85149       1.23432      2.109533E+03  1.405747E+03  2.535005E+03  3.308787E+03
   1.87129       1.24752      2.087184E+03  1.390889E+03  2.508169E+03  3.248758E+03
   1.89109       1.26073      2.065402E+03  1.376373E+03  2.481993E+03  3.189373E+03
   1.91089       1.27393      2.043968E+03  1.362079E+03  2.456230E+03  3.130598E+03
   1.93069       1.28713      2.022978E+03  1.348219E+03  2.431077E+03  3.072438E+03
   1.95050       1.30033      2.002476E+03  1.334468E+03  2.406390E+03  3.014859E+03
   1.97030       1.31353      1.982364E+03  1.321062E+03  2.382220E+03  2.957865E+03
   1.99010       1.32673      1.962605E+03  1.307955E+03  2.358509E+03  2.901450E+03
   2.00990       1.33993      1.943283E+03  1.295048E+03  2.335272E+03  2.845581E+03
   2.02970       1.35314      1.924374E+03  1.282460E+03  2.312557E+03  2.790264E+03
   2.04950       1.36634      1.905737E+03  1.270052E+03  2.290167E+03  2.735491E+03
   2.06931       1.37954      1.887492E+03  1.257903E+03  2.268248E+03  2.681235E+03
   2.08911       1.39274      1.869636E+03  1.246012E+03  2.246794E+03  2.627505E+03
   2.10891       1.40594      1.852074E+03  1.234301E+03  2.225686E+03  2.574275E+03
   2.12871       1.41914      1.834815E+03  1.222848E+03  2.204972E+03  2.521541E+03
   2.14851       1.43234      1.817932E+03  1.211566E+03  2.184667E+03  2.469304E+03
   2.16832       1.44554      1.801357E+03  1.200521E+03  2.164749E+03  2.417538E+03
   2.18812       1.45875      1.785008E+03  1.189676E+03  2.145129E+03  2.366251E+03
   2.20792       1.47195      1.769020E+03  1.178986E+03  2.125897E+03  2.315417E+03
   2.22772       1.48515      1.753315E+03  1.168568E+03  2.107051E+03  2.265045E+03
   2.24752       1.49835      1.737851E+03  1.158242E+03  2.088456E+03  2.215112E+03
   2.26733       1.51155      1.722674E+03  1.148125E+03  2.070217E+03  2.165616E+03
   2.28713       1.52475      1.707765E+03  1.138203E+03  2.052308E+03  2.116558E+03
   2.30693       1.53795      1.693121E+03  1.128438E+03  2.034706E+03  2.067917E+03
   2.32673       1.55116      1.678699E+03  1.118855E+03  2.017391E+03  2.019691E+03
   2.34653       1.56436      1.664532E+03  1.109392E+03  2.000354E+03  1.971880E+03
   2.36634       1.57756      1.650641E+03  1.100136E+03  1.983662E+03  1.924465E+03
   2.38614       1.59076      1.636925E+03  1.091009E+03  1.967187E+03  1.877449E+03
   2.40594       1.60396      1.623439E+03  1.082016E+03  1.950977E+03  1.830818E+03
   2.42574       1.61716      1.610179E+03  1.073221E+03  1.935066E+03  1.784575E+03
   2.44554       1.63036      1.597151E+03  1.064512E+03  1.919395E+03  1.738701E+03
   2.46535       1.64356      1.584331E+03  1.055970E+03  1.903990E+03  1.693198E+03
   2.48515       1.65677      1.571694E+03  1.047559E+03  1.888809E+03  1.648064E+03
   2.50495       1.66997      1.559268E+03  1.039277E+03  1.873877E+03  1.603283E+03
   2.52475       1.68317      1.547066E+03  1.031150E+03  1.859215E+03  1.558859E+03
   2.54455       1.69637      1.535009E+03  1.023110E+03  1.844724E+03  1.514779E+03
   2.56436       1.70957      1.523140E+03  1.015221E+03  1.830473E+03  1.471039E+03
   2.58416       1.72277      1.511489E+03  1.007443E+03  1.816464E+03  1.427641E+03
   2.60396       1.73597      1.500002E+03  9.997861E+02  1.802658E+03  1.384570E+03
   2.62376       1.74917      1.488660E+03  9.922544E+02  1.789044E+03  1.341829E+03
   2.64356       1.76238      1.477520E+03  9.848104E+02  1.775646E+03  1.299405E+03
   2.66337       1.77558      1.466563E+03  9.775116E+02  1.762480E+03  1.257298E+03
   2.68317       1.78878      1.455714E+03  9.702883E+02  1.749446E+03  1.215507E+03
   2.70297       1.80198      1.445047E+03  9.631816E+02  1.736629E+03  1.174019E+03
   2.72277       1.81518      1.434546E+03  9.561846E+02  1.724010E+03  1.132838E+03
   2.74257       1.82838      1.424195E+03  9.492831E+02  1.711569E+03  1.091951E+03
   2.76238       1.84158      1.413973E+03  9.424952E+02  1.699299E+03  1.051359E+03
   2.78218       1.85479      1.403915E+03  9.357697E+02  1.687199E+03  1.011060E+03
   2.80198       1.86799      1.393998E+03  9.291957E+02  1.675302E+03  9.710464E+02
   2.82178       1.88119      1.384209E+03  9.226524E+02  1.663527E+03  9.313121E+02
   2.84158       1.89439      1.374568E+03  9.162178E+02  1.651936E+03  8.918549E+02
   2.86139       1.90759      1.365054E+03  9.098895E+02  1.640510E+03  8.526755E+02
   2.88119       1.92079      1.355674E+03  9.036328E+02  1.629234E+03  8.137626E+02
   2.90099       1.93399      1.346428E+03  8.974771E+02  1.618126E+03  7.751168E+02
   2.92079       1.94719      1.337294E+03  8.913822E+02  1.607146E+03  7.367368E+02
   2.94059       1.96040      1.328282E+03  8.853847E+02  1.596320E+03  6.986128E+02
   2.96040       1.97360      1.319412E+03  8.794682E+02  1.585659E+03  6.607476E+02
   2.98020       1.98680      1.310644E+03  8.736222E+02  1.575120E+03  6.231325E+02
   3.00000       2.00000      1.301984E+03  8.678673E+02  1.564723E+03  5.857690E+02
EndData
EndFile
