Center
Title
Electric field data from file C4QPNT.AM
SubTitle
Problem title line 1: Electrostatic problem with charge on a point-region - 4 quadrants

MArkersize -0.3
Abscissa 1
Ordinate 3 4 5 6


Titles
X
Y
Ex
Ey
|E|
V 
EndTitles

AxisLabels
X (cm)
Y (cm)
Ex (V/cm)
Ey (V/cm)
E (V/cm)
V  (V)
EndLabels

CurveLabels
X
Y
Ex
Ey
E
V 
EndLabels

Data
;     X             Y              Ex            Ey            |E|           V 
;   (cm)          (cm)           (V/cm)        (V/cm)        (V/cm)         (V)  
   1.00000      0.666667      3.908452E+03  2.601922E+03  4.695316E+03  6.790215E+03
   1.01980      0.679868      3.832660E+03  2.551297E+03  4.604172E+03  6.679445E+03
   1.03960      0.693070      3.759596E+03  2.503187E+03  4.516692E+03  6.570892E+03
   1.05941      0.706271      3.689583E+03  2.456458E+03  4.432517E+03  6.464319E+03
   1.07921      0.719472      3.621854E+03  2.411461E+03  4.351203E+03  6.359708E+03
   1.09901      0.732674      3.556473E+03  2.368081E+03  4.272740E+03  6.257072E+03
   1.11881      0.745875      3.493919E+03  2.326423E+03  4.197585E+03  6.156212E+03
   1.13861      0.759076      3.433051E+03  2.286240E+03  4.124650E+03  6.057113E+03
   1.15842      0.772278      3.374202E+03  2.246896E+03  4.053860E+03  5.959778E+03
   1.17822      0.785479      3.317396E+03  2.209837E+03  3.986038E+03  5.864089E+03
   1.19802      0.798680      3.262729E+03  2.172924E+03  3.920077E+03  5.769947E+03
   1.21782      0.811881      3.209721E+03  2.137573E+03  3.856362E+03  5.677358E+03
   1.23762      0.825083      3.158231E+03  2.103722E+03  3.794742E+03  5.586301E+03
   1.25743      0.838284      3.108584E+03  2.070434E+03  3.734969E+03  5.496642E+03
   1.27723      0.851485      3.060550E+03  2.038447E+03  3.677258E+03  5.408394E+03
   1.29703      0.864687      3.013666E+03  2.007424E+03  3.621041E+03  5.321539E+03
   1.31683      0.877888      2.968366E+03  1.977200E+03  3.566584E+03  5.235957E+03
   1.33663      0.891089      2.924654E+03  1.948152E+03  3.514099E+03  5.151663E+03
   1.35644      0.904291      2.881765E+03  1.919619E+03  3.462587E+03  5.068636E+03
   1.37624      0.917492      2.840248E+03  1.892039E+03  3.412743E+03  4.986778E+03
   1.39604      0.930693      2.800069E+03  1.865312E+03  3.364487E+03  4.906122E+03
   1.41584      0.943895      2.760934E+03  1.839217E+03  3.317450E+03  4.826577E+03
   1.43564      0.957096      2.722681E+03  1.814085E+03  3.271681E+03  4.748159E+03
   1.45545      0.970297      2.685777E+03  1.789250E+03  3.227199E+03  4.670789E+03
   1.47525      0.983499      2.649839E+03  1.765309E+03  3.184017E+03  4.594469E+03
   1.49505      0.996700      2.614585E+03  1.742011E+03  3.141760E+03  4.519188E+03
   1.51485       1.00990      2.580468E+03  1.719175E+03  3.100707E+03  4.444872E+03
   1.53465       1.02310      2.547249E+03  1.697208E+03  3.060881E+03  4.371545E+03
   1.55446       1.03630      2.514741E+03  1.675495E+03  3.021788E+03  4.299141E+03
   1.57426       1.04951      2.483114E+03  1.654413E+03  2.983779E+03  4.227647E+03
   1.59406       1.06271      2.452295E+03  1.633950E+03  2.946786E+03  4.157071E+03
   1.61386       1.07591      2.422237E+03  1.613901E+03  2.910654E+03  4.087347E+03
   1.63366       1.08911      2.392841E+03  1.594387E+03  2.875371E+03  4.018471E+03
   1.65347       1.10231      2.364193E+03  1.575272E+03  2.840931E+03  3.950445E+03
   1.67327       1.11551      2.336304E+03  1.556691E+03  2.807419E+03  3.883212E+03
   1.69307       1.12871      2.308833E+03  1.538533E+03  2.774490E+03  3.816783E+03
   1.71287       1.14191      2.282215E+03  1.520691E+03  2.742445E+03  3.751112E+03
   1.73267       1.15512      2.256136E+03  1.503482E+03  2.711201E+03  3.686212E+03
   1.75248       1.16832      2.230637E+03  1.486420E+03  2.680520E+03  3.622036E+03
   1.77228       1.18152      2.205739E+03  1.469788E+03  2.650578E+03  3.558578E+03
   1.79208       1.19472      2.181348E+03  1.453617E+03  2.621313E+03  3.495841E+03
   1.81188       1.20792      2.157516E+03  1.437708E+03  2.592659E+03  3.433778E+03
   1.83168       1.22112      2.134231E+03  1.422208E+03  2.564686E+03  3.372393E+03
   1.85149       1.23432      2.111372E+03  1.406986E+03  2.537224E+03  3.311679E+03
   1.87129       1.24752      2.089015E+03  1.392107E+03  2.510367E+03  3.251597E+03
   1.89109       1.26073      2.067209E+03  1.377584E+03  2.484168E+03  3.192161E+03
   1.91089       1.27393      2.045754E+03  1.363277E+03  2.458380E+03  3.133334E+03
   1.93069       1.28713      2.024730E+03  1.349415E+03  2.433198E+03  3.075122E+03
   1.95050       1.30033      2.004226E+03  1.335638E+03  2.408496E+03  3.017494E+03
   1.97030       1.31353      1.984097E+03  1.322220E+03  2.384304E+03  2.960450E+03
   1.99010       1.32673      1.964312E+03  1.309110E+03  2.360570E+03  2.903985E+03
   2.00990       1.33993      1.944982E+03  1.296183E+03  2.337316E+03  2.848068E+03
   2.02970       1.35314      1.926058E+03  1.283580E+03  2.314580E+03  2.792702E+03
   2.04950       1.36634      1.907398E+03  1.271170E+03  2.292170E+03  2.737881E+03
   2.06931       1.37954      1.889145E+03  1.259004E+03  2.270234E+03  2.683578E+03
   2.08911       1.39274      1.871268E+03  1.247110E+03  2.248761E+03  2.629801E+03
   2.10891       1.40594      1.853691E+03  1.235386E+03  2.227633E+03  2.576524E+03
   2.12871       1.41914      1.836425E+03  1.223917E+03  2.206905E+03  2.523744E+03
   2.14851       1.43234      1.819520E+03  1.212630E+03  2.186578E+03  2.471461E+03
   2.16832       1.44554      1.802930E+03  1.201574E+03  2.166642E+03  2.419651E+03
   2.18812       1.45875      1.786561E+03  1.190721E+03  2.147002E+03  2.368318E+03
   2.20792       1.47195      1.770565E+03  1.180019E+03  2.127756E+03  2.317440E+03
   2.22772       1.48515      1.754843E+03  1.169598E+03  2.108894E+03  2.267023E+03
   2.24752       1.49835      1.739366E+03  1.159259E+03  2.090281E+03  2.217047E+03
   2.26733       1.51155      1.724180E+03  1.149130E+03  2.072027E+03  2.167508E+03
   2.28713       1.52475      1.709254E+03  1.139203E+03  2.054102E+03  2.118407E+03
   2.30693       1.53795      1.694598E+03  1.129428E+03  2.036485E+03  2.069724E+03
   2.32673       1.55116      1.680168E+03  1.119832E+03  2.019156E+03  2.021455E+03
   2.34653       1.56436      1.665984E+03  1.110364E+03  2.002102E+03  1.973602E+03
   2.36634       1.57756      1.652027E+03  1.101083E+03  1.985341E+03  1.926145E+03
   2.38614       1.59076      1.638354E+03  1.091964E+03  1.968906E+03  1.879089E+03
   2.40594       1.60396      1.624856E+03  1.082963E+03  1.952682E+03  1.832418E+03
   2.42574       1.61716      1.611581E+03  1.074163E+03  1.936755E+03  1.786134E+03
   2.44554       1.63036      1.598545E+03  1.065443E+03  1.921071E+03  1.740220E+03
   2.46535       1.64356      1.585714E+03  1.056894E+03  1.905653E+03  1.694677E+03
   2.48515       1.65677      1.573064E+03  1.048477E+03  1.890459E+03  1.649504E+03
   2.50495       1.66997      1.560630E+03  1.040186E+03  1.875514E+03  1.604683E+03
   2.52475       1.68317      1.548416E+03  1.032053E+03  1.860840E+03  1.560221E+03
   2.54455       1.69637      1.536348E+03  1.024006E+03  1.846335E+03  1.516102E+03
   2.56436       1.70957      1.524471E+03  1.016109E+03  1.832072E+03  1.472324E+03
   2.58416       1.72277      1.512808E+03  1.008325E+03  1.818050E+03  1.428888E+03
   2.60396       1.73597      1.501310E+03  1.000661E+03  1.804233E+03  1.385779E+03
   2.62376       1.74917      1.489958E+03  9.931234E+02  1.790605E+03  1.343001E+03
   2.64356       1.76238      1.478810E+03  9.856716E+02  1.777196E+03  1.300540E+03
   2.66337       1.77558      1.467843E+03  9.783658E+02  1.764019E+03  1.258397E+03
   2.68317       1.78878      1.456984E+03  9.711376E+02  1.750974E+03  1.216569E+03
   2.70297       1.80198      1.446309E+03  9.640234E+02  1.738146E+03  1.175044E+03
   2.72277       1.81518      1.435797E+03  9.570215E+02  1.725516E+03  1.133827E+03
   2.74257       1.82838      1.425438E+03  9.501137E+02  1.713064E+03  1.092905E+03
   2.76238       1.84158      1.415209E+03  9.433185E+02  1.700784E+03  1.052277E+03
   2.78218       1.85479      1.405140E+03  9.365880E+02  1.688673E+03  1.011943E+03
   2.80198       1.86799      1.395214E+03  9.300096E+02  1.676765E+03  9.718948E+02
   2.82178       1.88119      1.385417E+03  9.234595E+02  1.664980E+03  9.321257E+02
   2.84158       1.89439      1.375769E+03  9.170188E+02  1.653379E+03  8.926341E+02
   2.86139       1.90759      1.366246E+03  9.106857E+02  1.641943E+03  8.534205E+02
   2.88119       1.92079      1.356858E+03  9.044226E+02  1.630657E+03  8.144735E+02
   2.90099       1.93399      1.347604E+03  8.982613E+02  1.619540E+03  7.757940E+02
   2.92079       1.94719      1.338462E+03  8.921618E+02  1.608550E+03  7.373805E+02
   2.94059       1.96040      1.329442E+03  8.861587E+02  1.597715E+03  6.992232E+02
   2.96040       1.97360      1.320565E+03  8.802373E+02  1.587044E+03  6.613249E+02
   2.98020       1.98680      1.311789E+03  8.743862E+02  1.576497E+03  6.236769E+02
   3.00000       2.00000      1.303121E+03  8.686265E+02  1.566090E+03  5.862807E+02
EndData
EndFile
