Center
Title
Electric field data from file C4QTRI.AM
SubTitle
Problem title line 1: Electrostatic problem with charge density in one triangle centered on 0,0

MArkersize -0.3
Abscissa 1
Ordinate 3 4 5 6


Titles
X
Y
Ex
Ey
|E|
V 
EndTitles

AxisLabels
X (cm)
Y (cm)
Ex (V/cm)
Ey (V/cm)
E (V/cm)
V  (V)
EndLabels

CurveLabels
X
Y
Ex
Ey
E
V 
EndLabels

Data
;     X             Y              Ex            Ey            |E|           V 
;   (cm)          (cm)           (V/cm)        (V/cm)        (V/cm)         (V)  
   1.00000      0.666667      3.908500E+03  2.601772E+03  4.695273E+03  6.790202E+03
   1.01980      0.679868      3.832565E+03  2.551289E+03  4.604088E+03  6.679432E+03
   1.03960      0.693070      3.759627E+03  2.503029E+03  4.516631E+03  6.570879E+03
   1.05941      0.706271      3.689597E+03  2.456346E+03  4.432466E+03  6.464307E+03
   1.07921      0.719472      3.621727E+03  2.411495E+03  4.351116E+03  6.359699E+03
   1.09901      0.732674      3.556479E+03  2.367995E+03  4.272698E+03  6.257061E+03
   1.11881      0.745875      3.493928E+03  2.326351E+03  4.197552E+03  6.156202E+03
   1.13861      0.759076      3.432653E+03  2.286111E+03  4.124247E+03  6.057158E+03
   1.15842      0.772278      3.374193E+03  2.246849E+03  4.053827E+03  5.959769E+03
   1.17822      0.785479      3.317497E+03  2.209680E+03  3.986035E+03  5.864083E+03
   1.19802      0.798680      3.262673E+03  2.172963E+03  3.920052E+03  5.769950E+03
   1.21782      0.811881      3.209700E+03  2.137556E+03  3.856335E+03  5.677351E+03
   1.23762      0.825083      3.158282E+03  2.103629E+03  3.794733E+03  5.586296E+03
   1.25743      0.838284      3.108567E+03  2.070431E+03  3.734953E+03  5.496636E+03
   1.27723      0.851485      3.060517E+03  2.038455E+03  3.677236E+03  5.408389E+03
   1.29703      0.864687      3.013688E+03  2.007367E+03  3.621028E+03  5.321535E+03
   1.31683      0.877888      2.968339E+03  1.977198E+03  3.566560E+03  5.235953E+03
   1.33663      0.891089      2.924610E+03  1.948188E+03  3.514083E+03  5.151659E+03
   1.35644      0.904291      2.881772E+03  1.919583E+03  3.462572E+03  5.068632E+03
   1.37624      0.917492      2.840203E+03  1.892038E+03  3.412705E+03  4.986775E+03
   1.39604      0.930693      2.800064E+03  1.865286E+03  3.364469E+03  4.906118E+03
   1.41584      0.943895      2.760932E+03  1.839196E+03  3.317437E+03  4.826573E+03
   1.43564      0.957096      2.722730E+03  1.814037E+03  3.271696E+03  4.748157E+03
   1.45545      0.970297      2.685772E+03  1.789239E+03  3.227188E+03  4.670786E+03
   1.47525      0.983499      2.649834E+03  1.765304E+03  3.184010E+03  4.594467E+03
   1.49505      0.996700      2.614609E+03  1.741978E+03  3.141762E+03  4.519187E+03
   1.51485       1.00990      2.580459E+03  1.719171E+03  3.100696E+03  4.444870E+03
   1.53465       1.02310      2.547259E+03  1.697163E+03  3.060864E+03  4.371544E+03
   1.55446       1.03630      2.514750E+03  1.675471E+03  3.021782E+03  4.299139E+03
   1.57426       1.04951      2.483097E+03  1.654414E+03  2.983766E+03  4.227646E+03
   1.59406       1.06271      2.452300E+03  1.633926E+03  2.946776E+03  4.157070E+03
   1.61386       1.07591      2.422240E+03  1.613884E+03  2.910647E+03  4.087346E+03
   1.63366       1.08911      2.392816E+03  1.594394E+03  2.875354E+03  4.018470E+03
   1.65347       1.10231      2.364193E+03  1.575260E+03  2.840925E+03  3.950444E+03
   1.67327       1.11551      2.336305E+03  1.556681E+03  2.807415E+03  3.883211E+03
   1.69307       1.12871      2.308852E+03  1.538518E+03  2.774497E+03  3.816784E+03
   1.71287       1.14191      2.282213E+03  1.520685E+03  2.742440E+03  3.751112E+03
   1.73267       1.15512      2.256153E+03  1.503453E+03  2.711198E+03  3.686212E+03
   1.75248       1.16832      2.230645E+03  1.486406E+03  2.680518E+03  3.622036E+03
   1.77228       1.18152      2.205733E+03  1.469787E+03  2.650572E+03  3.558578E+03
   1.79208       1.19472      2.181356E+03  1.453600E+03  2.621310E+03  3.495841E+03
   1.81188       1.20792      2.157557E+03  1.437727E+03  2.592704E+03  3.433781E+03
   1.83168       1.22112      2.134221E+03  1.422212E+03  2.564681E+03  3.372393E+03
   1.85149       1.23432      2.111376E+03  1.406976E+03  2.537220E+03  3.311679E+03
   1.87129       1.24752      2.089007E+03  1.392106E+03  2.510360E+03  3.251598E+03
   1.89109       1.26073      2.067207E+03  1.377576E+03  2.484162E+03  3.192161E+03
   1.91089       1.27393      2.045754E+03  1.363271E+03  2.458377E+03  3.133334E+03
   1.93069       1.28713      2.024746E+03  1.349399E+03  2.433202E+03  3.075123E+03
   1.95050       1.30033      2.004225E+03  1.335635E+03  2.408493E+03  3.017494E+03
   1.97030       1.31353      1.984096E+03  1.322218E+03  2.384302E+03  2.960450E+03
   1.99010       1.32673      1.964319E+03  1.309100E+03  2.360571E+03  2.903986E+03
   2.00990       1.33993      1.944981E+03  1.296181E+03  2.337314E+03  2.848068E+03
   2.02970       1.35314      1.926056E+03  1.283582E+03  2.314578E+03  2.792702E+03
   2.04950       1.36634      1.907402E+03  1.271163E+03  2.292169E+03  2.737882E+03
   2.06931       1.37954      1.889142E+03  1.259004E+03  2.270230E+03  2.683578E+03
   2.08911       1.39274      1.871269E+03  1.247103E+03  2.248758E+03  2.629802E+03
   2.10891       1.40594      1.853693E+03  1.235381E+03  2.227632E+03  2.576525E+03
   2.12871       1.41914      1.836418E+03  1.223918E+03  2.206900E+03  2.523745E+03
   2.14851       1.43234      1.819520E+03  1.212626E+03  2.186576E+03  2.471462E+03
   2.16832       1.44554      1.802931E+03  1.201571E+03  2.166641E+03  2.419651E+03
   2.18812       1.45875      1.786567E+03  1.190716E+03  2.147004E+03  2.368319E+03
   2.20792       1.47195      1.770565E+03  1.180017E+03  2.127755E+03  2.317440E+03
   2.22772       1.48515      1.754847E+03  1.169590E+03  2.108893E+03  2.267024E+03
   2.24752       1.49835      1.739369E+03  1.159255E+03  2.090281E+03  2.217048E+03
   2.26733       1.51155      1.724179E+03  1.149129E+03  2.072026E+03  2.167509E+03
   2.28713       1.52475      1.709257E+03  1.139198E+03  2.054101E+03  2.118408E+03
   2.30693       1.53795      1.694600E+03  1.129425E+03  2.036484E+03  2.069725E+03
   2.32673       1.55116      1.680165E+03  1.119834E+03  2.019154E+03  2.021456E+03
   2.34653       1.56436      1.665986E+03  1.110362E+03  2.002102E+03  1.973603E+03
   2.36634       1.57756      1.652083E+03  1.101098E+03  1.985395E+03  1.926147E+03
   2.38614       1.59076      1.638355E+03  1.091963E+03  1.968906E+03  1.879090E+03
   2.40594       1.60396      1.624857E+03  1.082962E+03  1.952682E+03  1.832419E+03
   2.42574       1.61716      1.611585E+03  1.074159E+03  1.936757E+03  1.786134E+03
   2.44554       1.63036      1.598545E+03  1.065443E+03  1.921072E+03  1.740221E+03
   2.46535       1.64356      1.585714E+03  1.056894E+03  1.905653E+03  1.694678E+03
   2.48515       1.65677      1.573066E+03  1.048475E+03  1.890460E+03  1.649505E+03
   2.50495       1.66997      1.560630E+03  1.040186E+03  1.875514E+03  1.604684E+03
   2.52475       1.68317      1.548417E+03  1.032051E+03  1.860840E+03  1.560222E+03
   2.54455       1.69637      1.536350E+03  1.024004E+03  1.846336E+03  1.516103E+03
   2.56436       1.70957      1.524470E+03  1.016109E+03  1.832072E+03  1.472325E+03
   2.58416       1.72277      1.512809E+03  1.008324E+03  1.818051E+03  1.428889E+03
   2.60396       1.73597      1.501312E+03  1.000660E+03  1.804233E+03  1.385780E+03
   2.62376       1.74917      1.489961E+03  9.931220E+02  1.790607E+03  1.343002E+03
   2.64356       1.76238      1.478811E+03  9.856716E+02  1.777197E+03  1.300541E+03
   2.66337       1.77558      1.467844E+03  9.783664E+02  1.764020E+03  1.258397E+03
   2.68317       1.78878      1.456985E+03  9.711366E+02  1.750975E+03  1.216569E+03
   2.70297       1.80198      1.446310E+03  9.640237E+02  1.738147E+03  1.175045E+03
   2.72277       1.81518      1.435799E+03  9.570206E+02  1.725516E+03  1.133828E+03
   2.74257       1.82838      1.425439E+03  9.501131E+02  1.713065E+03  1.092906E+03
   2.76238       1.84158      1.415208E+03  9.433193E+02  1.700784E+03  1.052278E+03
   2.78218       1.85479      1.405141E+03  9.365879E+02  1.688674E+03  1.011944E+03
   2.80198       1.86799      1.395216E+03  9.300081E+02  1.676766E+03  9.718954E+02
   2.82178       1.88119      1.385419E+03  9.234591E+02  1.664981E+03  9.321263E+02
   2.84158       1.89439      1.375769E+03  9.170190E+02  1.653380E+03  8.926347E+02
   2.86139       1.90759      1.366247E+03  9.106851E+02  1.641944E+03  8.534210E+02
   2.88119       1.92079      1.356859E+03  9.044229E+02  1.630658E+03  8.144741E+02
   2.90099       1.93399      1.347605E+03  8.982619E+02  1.619541E+03  7.757946E+02
   2.92079       1.94719      1.338463E+03  8.921617E+02  1.608551E+03  7.373810E+02
   2.94059       1.96040      1.329443E+03  8.861590E+02  1.597716E+03  6.992236E+02
   2.96040       1.97360      1.320566E+03  8.802374E+02  1.587045E+03  6.613254E+02
   2.98020       1.98680      1.311790E+03  8.743864E+02  1.576498E+03  6.236773E+02
   3.00000       2.00000      1.303123E+03  8.686264E+02  1.566091E+03  5.862811E+02
EndData
EndFile
